 ******GRWAVE  (RELEASE 2 AT 23/10/1985 )********
 *****COPYRIGHT  (C)   GEC   PLC   1985   *********
 CCIR Personal Computer Version 1989 Study Group 5 IWP5/1
 
 GRWAVE COMPUTES FIELD STRENGTH-DISTANCE VARIATIONS
 FOR A HOMOGENEOUS CURVED EARTH WITH EXPONENTIALLY
 DECREASING REFRACTIVE INDEX


                     ATMOSPHERIC CONSTANTS
                         REFRACTIVITY =315.00  (N-UNITS)
                         SCALE HEIGHT = 7.350  KM

                     GROUND CONSTANTS
                         RELATIVE PERMITTIVITY =    30.000
                         CONDUCTIVITY =1.0000D-02  SIEMENS/METRE

                     VERTICAL POLARISATION

                     MINIMUM DISTANCE =     1.000  KILOMETRES
                     MAXIMUM DISTANCE =   400.785  KILOMETRES
                     DSTEP            =     5.000  KILOMETRES


                     FREQUENCY =  975.000 MHZ

                     TRANSMITTER HEIGHT =   949.9  METRES
                     RECIEVER HEIGHT    =   283.8  METRES

                     DISTANCE      FIELD STRENGTH     BASIC TRANSMISSION LOSS
                        KM            DB(UV/M)               DB           (G) 
                          9.64         82.33               113.41
                         14.64         82.87               112.88
                         19.64         80.36               115.39
                         24.64         72.52               123.22
                         29.64         76.37               119.37
                         34.64         73.75               122.00
                         39.64         61.30               134.44
                         44.64         74.36               121.38
                         49.64         72.61               123.14
                         54.64         72.11               123.63
                         59.64         72.31               123.44
                         64.64         55.67               140.07
                         69.64         70.33               125.41
                         74.64         70.25               125.49
                         79.64         65.33               130.41
                         84.64         64.86               130.88
                         89.64         67.33               128.42
                         94.64         68.11               127.64
                         99.64         61.75               133.99
                        104.64         53.08               142.66
                        109.64         51.89               143.85
                        114.64         55.00               140.74
                        119.64         61.78               133.96
                        124.64         65.48               130.27
                        129.64         64.38               131.36
                        134.64         52.61               143.13
                        139.64         63.99               131.75
                        144.64         59.39               136.35
                        149.64         62.36               133.38
                        154.64         57.20               138.54
                        159.64         62.73               133.01
                        164.64         56.36               139.39
                        169.64         58.10               137.65
                        174.64         61.21               134.54
                        176.53         61.12               134.63
                                                                          (R)
                        176.53         61.85               133.90
                        180.78         60.87               134.87
                        185.78         58.03               137.71
                        190.78         54.13               141.62
                        195.78         49.60               146.14
                        200.78         44.77               150.98
                        205.78         39.82               155.92
                        210.78         34.88               160.87
                        215.78         30.00               165.75
                        220.78         25.19               170.55
                        225.78         20.46               175.28
                        230.78         15.79               179.95
                        235.78         11.16               184.58
                        240.78          6.56               189.18
                        245.78          1.99               193.76
                        250.78         -2.58               198.32
                        255.78         -7.14               202.88
                        260.78        -11.69               207.43
                        265.78        -16.23               211.98
                        270.78        -20.78               216.52
                        275.78        -25.32               221.06
                        280.78        -29.86               225.61
                        285.78        -34.40               230.15
                        290.78        -38.94               234.69
                        295.78        -43.48               239.23
                        300.78        -48.02               243.76
                        305.78        -52.56               248.30
                        310.78        -57.09               252.84
                        315.78        -61.63               257.37
                        320.78        -66.16               261.90
                        325.78        -70.69               266.44
                        330.78        -75.23               270.97
                        335.78        -79.76               275.50
                        340.78        -84.29               280.03
                        345.78        -88.81               284.56
                        350.78        -93.34               289.09
                        355.78        -97.87               293.61
                        360.78       -102.40               298.14
                        365.78       -106.92               302.66
                        370.78       -111.45               307.19
                        375.78       -115.97               311.71
                        380.78       -120.49               316.24
                        385.78       -125.01               320.76
                        390.78       -129.54               325.28
                        395.78       -134.06               329.80
                        400.78       -138.58               334.32
